 Time (ps)Ekin (1e12erg)Epot (1e12erg)E (1e12erg)T (K)
   0.00000000       16.8911858      -68.8582153      -51.9670296       94.3999710    
  0.100000001       19.7843590      -71.7777481      -51.9933891       110.569084    
  0.200000003       19.8873539      -71.9035416      -52.0161819       111.144684    
  0.300000012       20.3519421      -72.3792725      -52.0273323       113.741135    
  0.400000006       20.0137501      -72.0238266      -52.0100746       111.851082    
  0.499999970       20.0910130      -72.1172943      -52.0262871       112.282883    
  0.600000024       19.4411926      -71.4854965      -52.0443077       108.651222    
  0.699999988       20.7499466      -72.7631302      -52.0131836       115.965469    
  0.800000012       19.9588547      -71.9977951      -52.0389442       111.544281    
  0.899999976       20.2424526      -72.2627029      -52.0202484       113.129227    
  0.999999940       20.8473492      -72.8941422      -52.0467911       116.509827    
   1.10000002       21.1178112      -73.1494064      -52.0316010       118.021355    
   1.20000005       20.6273537      -72.6784821      -52.0511284       115.280334    
   1.29999995       20.2459183      -72.2824326      -52.0365143       113.148598    
   1.39999998       20.6403942      -72.6632690      -52.0228806       115.353210    
   1.49999988       20.6635666      -72.6784286      -52.0148659       115.482712    
   1.60000002       20.0986805      -72.1231079      -52.0244255       112.325722    
   1.69999993       19.9364166      -71.9614639      -52.0250473       111.418884    
   1.79999995       19.7361965      -71.7775269      -52.0413284       110.299911    
   1.89999998       20.5591927      -72.5819092      -52.0227203       114.899399    
   1.99999988       20.3164978      -72.3212662      -52.0047684       113.543053    
   2.09999990       19.8850346      -71.8942795      -52.0092468       111.131721    
   2.20000005       20.3249722      -72.3535614      -52.0285912       113.590408    
   2.29999995       19.8298473      -71.8616638      -52.0318146       110.823303    
   2.40000010       20.5842514      -72.6310959      -52.0468445       115.039444    
   2.50000000       20.2811642      -72.2673874      -51.9862213       113.345573    
   2.59999990       20.0995102      -72.0957413      -51.9962273       112.330368    
   2.69999981       20.4253139      -72.4350967      -52.0097847       114.151192    
   2.79999995       20.0423470      -72.0462265      -52.0038795       112.010902    
   2.90000010       19.9885120      -71.9820709      -51.9935608       111.710030    
   2.99999976       20.3646336      -72.3632202      -51.9985847       113.812065    
   3.09999990       20.4163990      -72.4101028      -51.9937096       114.101364    
   3.20000005       20.2558460      -72.2632446      -52.0073967       113.204079    
   3.29999995       20.2080669      -72.2212677      -52.0132027       112.937065    
   3.39999986       19.5835342      -71.5959320      -52.0123940       109.446724    
   3.50000000       20.2209206      -72.2740479      -52.0531273       113.008888    
   3.59999990       19.9677658      -72.0362015      -52.0684395       111.594078    
   3.70000005       20.4528637      -72.4804459      -52.0275841       114.305153    
   3.79999995       20.1226006      -72.1382065      -52.0156021       112.459419    
   3.89999986       20.0269165      -72.0409393      -52.0140266       111.924660    
   3.99999976       20.1205387      -72.1439438      -52.0234070       112.447891    
   4.09999990       19.9397144      -71.9426804      -52.0029640       111.437317    
   4.19999981       19.6064854      -71.6245575      -52.0180779       109.574989    
   4.29999971       19.6311378      -71.6466675      -52.0155296       109.712761    
   4.40000010       19.5975628      -71.6116104      -52.0140495       109.525131    
   4.50000000       20.0850124      -72.1118546      -52.0268478       112.249336    
   4.59999990       19.8094101      -71.8428497      -52.0334396       110.709076    
   4.69999981       20.0341053      -72.0736084      -52.0395050       111.964844    
   4.80000019       20.5043182      -72.5632324      -52.0589142       114.592720    
   4.90000010       20.0377789      -72.0744247      -52.0366440       111.985367    
   5.00000000       19.7215271      -71.7469559      -52.0254288       110.217926    
   5.10000038       20.5105762      -72.5350494      -52.0244713       114.627693    
   5.19999981       20.4715271      -72.4888611      -52.0173340       114.409462    
   5.29999971       20.0808029      -72.0959473      -52.0151405       112.225815    
   5.39999962       20.2084026      -72.2205124      -52.0121078       112.938934    
   5.50000000       20.0871811      -72.0859909      -51.9988060       112.261467    
   5.59999990       20.1920834      -72.1608276      -51.9687424       112.847733    
   5.69999981       20.6839962      -72.6986847      -52.0146904       115.596886    
   5.80000019       19.4290409      -71.4310608      -52.0020218       108.583313    
   5.90000010       20.1066723      -72.1183395      -52.0116653       112.370399    
   5.99999952       20.1919270      -72.2069473      -52.0150223       112.846863    
   6.10000038       20.0375042      -72.0475922      -52.0100822       111.983833    
   6.19999981       20.1748829      -72.2033997      -52.0285187       112.751602    
   6.30000019       20.3160896      -72.3419876      -52.0258980       113.540764    
   6.40000010       20.3115940      -72.3378296      -52.0262375       113.515640    
   6.49999952       20.1713009      -72.2052689      -52.0339661       112.731583    
   6.59999990       20.0401726      -72.0655746      -52.0254059       111.998741    
   6.70000029       20.2028942      -72.2667923      -52.0638962       112.908150    
   6.79999971       20.1667652      -72.2451859      -52.0784264       112.706238    
   6.90000010       20.5924911      -72.6629868      -52.0704918       115.085495    
   7.00000000       20.2549305      -72.3007507      -52.0458183       113.198959    
   7.09999990       20.7511539      -72.8203278      -52.0691719       115.972214    
   7.19999981       20.3826122      -72.4594193      -52.0768089       113.912544    
   7.29999971       20.0074902      -72.0482941      -52.0408020       111.816093    
   7.40000010       19.6573830      -71.6824646      -52.0250816       109.859444    
   7.50000000       19.4971313      -71.5158005      -52.0186653       108.963844    
   7.59999990       20.4019966      -72.3999557      -51.9979591       114.020874    
   7.69999981       19.9778023      -71.9787903      -52.0009880       111.650177    
   7.79999971       19.9402447      -71.9782181      -52.0379715       111.440269    
   7.90000010       19.9932384      -72.0075302      -52.0142937       111.736443    
   7.99999952       20.6886520      -72.7192001      -52.0305481       115.622910    
   8.09999943       19.8921299      -71.9107742      -52.0186462       111.171371    
   8.19999981       20.2071114      -72.2328186      -52.0257034       112.931717    
   8.30000019       20.1195164      -72.1604309      -52.0409126       112.442177    
   8.39999962       20.0784473      -72.1061249      -52.0276794       112.212654    
   8.50000000       20.2486019      -72.2762756      -52.0276718       113.163589    
   8.59999943       20.3881855      -72.4325333      -52.0443497       113.943687    
   8.70000076       20.9282894      -72.9704895      -52.0422020       116.962166    
   8.80000019       20.6060143      -72.6429367      -52.0369148       115.161072    
   8.89999962       20.0357990      -72.0970993      -52.0612984       111.974304    
   9.00000000       20.0885544      -72.1480484      -52.0594940       112.269135    
   9.09999943       20.5008278      -72.5494080      -52.0485802       114.573219    
   9.19999981       20.5044918      -72.5718155      -52.0673218       114.593689    
   9.29999924       20.4822044      -72.5495987      -52.0673904       114.469131    
   9.39999962       19.9864426      -72.0380325      -52.0515938       111.698463    
   9.49999905       19.4506588      -71.4889526      -52.0382957       108.704117    
   9.60000038       20.1091957      -72.1364746      -52.0272827       112.384491    
   9.70000076       19.8808594      -71.9078674      -52.0270081       111.108391    
   9.80000019       20.3739777      -72.4268341      -52.0528564       113.864281    
   9.90000057       20.4370861      -72.4709854      -52.0339012       114.216980    
   10.0000000       20.1322784      -72.1723404      -52.0400581       112.513496    
